File: data/refractive_index_data/filmetrics/trans_SiO2_Au10nm_Air10000nm_Au10nm_SiO2.txt
Wavelength (nm)	Transmittance
210	0.1613288
218	0.2398222
226	0.1485169
234	0.1378858
242	0.1843224
250	0.224325
258	0.1249093
266	0.1305776
274	0.208503
282	0.225789
290	0.215375
298	0.1509675
306	0.0948385
314	0.1565162
322	0.1730942
330	0.1405314
338	0.167632
346	0.2580616
354	0.1421013
362	0.1630951
370	0.257848
378	0.3182434
386	0.2978182
394	0.2734401
402	0.2735999
410	0.2999626
418	0.3428162
426	0.3568103
434	0.294007
442	0.2246761
450	0.2192896
458	0.3220506
466	0.4607007
474	0.3261194
482	0.3290917
490	0.5562284
498	0.412947
506	0.4409607
514	0.6201109
522	0.3916248
530	0.69374
538	0.395289
546	0.6257369
554	0.4055991
562	0.5749749
570	0.4053174
578	0.6229133
586	0.390177
594	0.7574549
602	0.3701367
610	0.8259111
618	0.4017341
626	0.59874
634	0.6015356
642	0.4087005
650	0.864482
658	0.4161064
666	0.452463
674	0.7867438
682	0.2966911
690	0.4268918
698	0.6787906
706	0.2324442
714	0.3366032
722	0.7490768
730	0.209638
738	0.2170211
746	0.7882828
754	0.2627024
762	0.1473969
770	0.310721
778	0.6495067
786	0.1572219
794	0.1280071
802	0.3523155
810	0.5133723
818	0.1285494
826	0.1030918
834	0.2413712
842	0.7068738
850	0.1451016
858	0.0843637
866	0.1201553
874	0.4955976
882	0.3276298
890	0.0951778
898	0.0712178
906	0.1139142
914	0.494179
922	0.31146
930	0.0868998
938	0.0585732
946	0.074953
954	0.2096067
962	0.690981
970	0.1326187
978	0.0589168
986	0.0493814
994	0.0703116
1002	0.2032526
1010	0.6878542
1018	0.1338128
1026	0.0554267
1034	0.0411485
1042	0.0469835
1050	0.0881979
1058	0.3692236
1066	0.3677625
1074	0.0824023
1082	0.040526
1090	0.0315403
1098	0.0351579
1106	0.0582874
1114	0.1809682
1122	0.6501525
1130	0.1189331
1138	0.0441439
1146	0.0275099
1154	0.0238848
1162	0.0276265
1170	0.0443955
1178	0.1193647
1186	0.6338157
1194	0.1659038
1202	0.0506653
1210	0.0275043
1218	0.0206737
1226	0.0197807
1234	0.0237185
1242	0.0373364
1250	0.08843
1258	0.3983268
1266	0.3361357
1274	0.0861181
1282	0.0408159
1290	0.0273121
1298	0.0228862
1306	0.0229326
1314	0.0271592
1322	0.0388069
1330	0.0710056
1338	0.1900508
1346	0.6138881
1354	0.2641891
1362	0.0941314
1370	0.0504331
1378	0.0348565
1386	0.0279316
1394	0.0258498
1402	0.0272744
1410	0.0329329
1418	0.0465408
1426	0.0811634
1434	0.1934262
1442	0.5585161
1450	0.3323157
1458	0.1165581
1466	0.0573984
1474	0.0361087
1482	0.0268332
1490	0.0226263
1498	0.0212295
1506	0.0219982
1514	0.0252281
1522	0.0324289
1530	0.0480717
1538	0.0869783
1546	0.211688
1554	0.5510923
1562	0.2946747
1570	0.1076622
1578	0.0537597
1586	0.0334597
1594	0.024154
1602	0.0194586
1610	0.0171317
1618	0.0163032
1626	0.0166935
1634	0.0184039
1642	0.021982
1650	0.0288393
1658	0.0426385
1666	0.0745161
1674	0.166917
1682	0.4499827
1690	0.3721787
1698	0.1348164
1706	0.0628144
1714	0.0366976
1722	0.024914
1730	0.0188135
1738	0.0154155
1746	0.0135077
1754	0.0125509
1762	0.0123097
1770	0.0127228
1778	0.0138807
1786	0.0160425
1794	0.0197928
1802	0.0264266
1810	0.0390888
1818	0.0667435
1826	0.1406823
1834	0.3627673
1842	0.4177732
1850	0.163303
1858	0.0730466
1866	0.0407997
1874	0.0265022
1882	0.019114
1890	0.0148966
1898	0.0123401
1906	0.0107551
1914	0.0097954
1922	0.0092842
1930	0.0091366
1938	0.0093248
1946	0.0098747
1954	0.010868
1962	0.0124725
1970	0.0150081
1978	0.0191054
1986	0.0260872
1994	0.0390861
2002	0.0667266
2010	0.1373338
2018	0.3314211
2026	0.3960666
2034	0.1695187
2042	0.0769137
2050	0.0425963
2058	0.0271951
2066	0.0191624
2074	0.0145128
2082	0.0116215
2090	0.0097341
2098	0.0084682
2106	0.0076127
2114	0.0070481
2122	0.0067046
2130	0.0065425
2138	0.0065447
2146	0.0067087
2154	0.0070499
2162	0.0076025
2170	0.0084272
2178	0.0096285
2186	0.0113849
2194	0.0140108
2202	0.0180996
2210	0.0248656
2218	0.0370613
2226	0.061878
2234	0.1210393
2242	0.2724441
2250	0.3798895
2258	0.1906045
2266	0.0872322
2274	0.0474044
2282	0.029565
2290	0.0203179
2298	0.0149824
2306	0.0116533
2314	0.0094543
2322	0.0079398
2330	0.0068651
2338	0.0060879
2346	0.0055202
2354	0.0051073
2362	0.004814
2370	0.0046175
2378	0.0045025
2386	0.0044613
2394	0.0044907
2400	0.0045595