File: data/refractive_index_data/filmetrics/trans_SiO2_Au100nm_SiO2.txt
Wavelength (nm)	Transmittance
210	0.0004447
218	0.0004269
226	0.0004185
234	0.0003928
242	0.0003582
250	0.0003119
258	0.0002676
266	0.0002617
274	0.0002646
282	0.0002778
290	0.0003105
298	0.0003579
306	0.0004381
314	0.0005486
322	0.0007162
330	0.0009368
338	0.0011821
346	0.0014461
354	0.0016832
362	0.0018978
370	0.002015
378	0.0021018
386	0.0022597
394	0.0024549
402	0.002715
410	0.0030606
418	0.0035015
426	0.0040594
434	0.0047604
442	0.0056599
450	0.006889
458	0.0084229
466	0.0102657
474	0.0122378
482	0.0142522
490	0.0158725
498	0.0163964
506	0.0152525
514	0.0130266
522	0.0105128
530	0.0082116
538	0.0063511
546	0.005085
554	0.0042132
562	0.0036652
570	0.0035925
578	0.0036507
586	0.0038552
594	0.0040245
602	0.0041453
610	0.0042681
618	0.0043916
626	0.0046662
634	0.0050026
642	0.00504
650	0.0049865
658	0.0042468
666	0.0033829
674	0.0026537
682	0.0020472
690	0.0016055
698	0.0013496
706	0.0011383
714	0.0009823
722	0.0008574
730	0.0007518
738	0.0006755
746	0.0006082
754	0.0005508
762	0.0005042
770	0.0004623
778	0.0004244
786	0.0003903
794	0.0003594
802	0.0003324
810	0.0003102
818	0.0002899
826	0.0002711
834	0.0002588
842	0.0002476
850	0.000237
858	0.0002274
866	0.0002189
874	0.0002108
882	0.0002031
890	0.0001949
898	0.0001864
906	0.0001783
914	0.0001708
922	0.0001638
930	0.0001575
938	0.0001515
946	0.0001458
954	0.0001404
962	0.0001372
970	0.0001341
978	0.0001311
986	0.0001281
994	0.0001252
1002	0.0001221
1010	0.0001191
1018	0.0001162
1026	0.0001134
1034	0.0001105
1042	0.000106
1050	0.0001016
1058	9.75e-05
1066	9.37e-05
1074	9e-05
1082	8.66e-05
1090	8.34e-05
1098	8.03e-05
1106	7.75e-05
1114	7.47e-05
1122	7.21e-05
1130	6.97e-05
1138	6.74e-05
1146	6.53e-05
1154	6.33e-05
1162	6.13e-05
1170	5.95e-05
1178	5.77e-05
1186	5.69e-05
1194	5.67e-05
1202	5.65e-05
1210	5.63e-05
1218	5.61e-05
1226	5.59e-05
1234	5.57e-05
1242	5.64e-05
1250	5.98e-05
1258	6.33e-05
1266	6.7e-05
1274	7.08e-05
1282	7.49e-05
1290	7.91e-05
1298	8.34e-05
1306	8.8e-05
1314	9.24e-05
1322	9.7e-05
1330	0.0001018
1338	0.0001067
1346	0.0001118
1354	0.0001171
1362	0.0001226
1370	0.0001283
1378	0.0001338
1386	0.0001336
1394	0.0001333
1402	0.000133
1410	0.0001327
1418	0.0001324
1426	0.0001321
1434	0.0001319
1442	0.0001316
1450	0.0001313
1458	0.000131
1466	0.0001293
1474	0.0001276
1482	0.0001259
1490	0.0001242
1498	0.0001226
1506	0.000121
1514	0.0001195
1522	0.0001179
1530	0.0001164
1538	0.000115
1546	0.0001135
1554	0.0001123
1562	0.0001112
1570	0.0001102
1578	0.0001092
1586	0.0001081
1594	0.0001071
1602	0.0001062
1610	0.0001052
1618	0.0001042
1626	0.0001033
1634	0.0001024
1642	0.0001014
1650	0.0001005
1658	9.96e-05
1666	9.87e-05
1674	9.78e-05
1682	9.69e-05
1690	9.61e-05
1698	9.52e-05
1706	9.44e-05
1714	9.35e-05
1722	9.27e-05
1730	9.19e-05
1738	9.11e-05
1746	9.03e-05
1754	8.95e-05
1762	8.88e-05
1770	8.8e-05
1778	8.73e-05
1786	8.67e-05
1794	8.61e-05
1802	8.55e-05
1810	8.49e-05
1818	8.43e-05
1826	8.37e-05
1834	8.31e-05
1842	8.25e-05
1850	8.19e-05
1858	8.13e-05
1866	8.08e-05
1874	8.02e-05
1882	7.96e-05
1890	7.91e-05
1898	7.85e-05
1906	7.8e-05
1914	7.75e-05
1922	7.69e-05
1930	7.64e-05
1938	7.59e-05
1946	7.54e-05
1954	7.48e-05
1962	7.43e-05
1970	7.38e-05
1978	7.33e-05
1986	7.28e-05
1994	7.24e-05
2002	7.19e-05
2010	7.14e-05
2018	7.09e-05
2026	7.05e-05
2034	7e-05
2042	6.95e-05
2050	6.91e-05
2058	6.86e-05
2066	6.82e-05
2074	6.77e-05
2082	6.73e-05
2090	6.69e-05
2098	6.64e-05
2106	6.6e-05
2114	6.56e-05
2122	6.52e-05
2130	6.48e-05
2138	6.43e-05
2146	6.39e-05
2154	6.35e-05
2162	6.31e-05
2170	6.27e-05
2178	6.23e-05
2186	6.2e-05
2194	6.16e-05
2202	6.12e-05
2210	6.08e-05
2218	6.04e-05
2226	6.01e-05
2234	5.97e-05
2242	5.93e-05
2250	5.9e-05
2258	5.86e-05
2266	5.83e-05
2274	5.8e-05
2282	5.76e-05
2290	5.73e-05
2298	5.7e-05
2306	5.67e-05
2314	5.64e-05
2322	5.6e-05
2330	5.57e-05
2338	5.54e-05
2346	5.51e-05
2354	5.48e-05
2362	5.45e-05
2370	5.42e-05
2378	5.39e-05
2386	5.36e-05
2394	5.33e-05
2400	5.31e-05