File: data/filmetrics/reflectance_sio2_100_au_35_x2_air_1000.txt.tsv
Wavelength (nm)	Reflectance
200	0.1945058
203	0.2059952
206	0.2133689
209	0.1648708
212	0.1219783
215	0.0954316
218	0.0796441
221	0.0738032
224	0.0805299
227	0.1100282
230	0.1262473
233	0.1112064
236	0.1032563
239	0.1044538
242	0.1110123
245	0.1218435
248	0.1381205
251	0.1659348
254	0.2170944
257	0.2837607
260	0.2983605
263	0.2905646
266	0.2895309
269	0.294068
272	0.3007569
275	0.3082523
278	0.3164247
281	0.3253505
284	0.3359936
287	0.3535786
290	0.3892838
293	0.4387778
296	0.4577008
299	0.4468891
302	0.4325558
305	0.4213304
308	0.412754
311	0.4058666
314	0.4000303
317	0.3945963
320	0.3893843
323	0.3851089
326	0.3829103
329	0.3850483
332	0.3939806
335	0.413732
338	0.4469447
341	0.4854318
344	0.5048566
347	0.4923021
350	0.4625001
353	0.432114
356	0.4070774
359	0.3877294
362	0.3734018
365	0.362842
368	0.3562763
371	0.3520625
374	0.3499104
377	0.3491353
380	0.34955
383	0.3515122
386	0.3552282
389	0.3610493
392	0.3694501
395	0.3810799
398	0.3967014
401	0.41706
404	0.4418212
407	0.4682097
410	0.4883818
413	0.4910385
416	0.4684967
419	0.4270584
422	0.3805052
425	0.3389977
428	0.3059537
431	0.2804795
434	0.2613217
437	0.2465171
440	0.2351716
443	0.2267016
446	0.220079
449	0.2157251
452	0.2134826
455	0.2133855
458	0.2152365
461	0.2189547
464	0.2244794
467	0.2317077
470	0.242287
473	0.2553579
476	0.2701235
479	0.290107
482	0.3133369
485	0.338098
488	0.3659142
491	0.3957273
494	0.425761
497	0.4560873
500	0.486524
503	0.5150238
506	0.5403658
509	0.5611697
512	0.574781
515	0.5771996
518	0.5618032
521	0.5192695
524	0.4388528
527	0.3168242
530	0.1804954
533	0.0982307
536	0.113053
539	0.1978707
542	0.2959487
545	0.3851395
548	0.4599533
551	0.5215342
554	0.5652046
557	0.6014706
560	0.6322761
563	0.6589334
566	0.6778908
569	0.6939957
572	0.7087452
575	0.7224049
578	0.7340362
581	0.7435873
584	0.7526562
587	0.761308
590	0.769609
593	0.776633
596	0.783222
599	0.7895641
602	0.7956911
605	0.8015503
608	0.8061721
611	0.810644
614	0.814976
617	0.8191687
620	0.8232001
623	0.8259926
626	0.8286716
629	0.8312261
632	0.8336386
635	0.8358889
638	0.8384562
641	0.8410196
644	0.8433672
647	0.845467
650	0.8472791
653	0.8492046
656	0.8533393
659	0.8570836
662	0.8603845
665	0.8631606
668	0.865288
671	0.866695
674	0.8673241
677	0.8665289
680	0.8636851
683	0.8577634
686	0.8469488
689	0.8278363
692	0.792825
695	0.7316707
698	0.6221108
701	0.4316305
704	0.1734037
707	0.0496097
710	0.1956679
713	0.4043208
716	0.5574918
719	0.6562211
722	0.7202239
725	0.7633815
728	0.7937896
731	0.8154101
734	0.8313825
737	0.8439109
740	0.8539942
743	0.8622919
746	0.8692531
749	0.8751923
752	0.880297
755	0.8846271
758	0.8884736
761	0.8919237
764	0.8950443
767	0.8978916
770	0.900508
773	0.9029313
776	0.9052147
779	0.9074004
782	0.9094544
785	0.9113924
788	0.9132276
791	0.914971
794	0.9166322
797	0.9182193
800	0.9197333
803	0.9210204
806	0.9222598
809	0.9234557
812	0.9246093
815	0.9257248
818	0.9268062
821	0.927857
824	0.9288804
827	0.9298405
830	0.9305678
833	0.9312768
836	0.9319716
839	0.9326533
842	0.9333246
845	0.9339853
848	0.934635
851	0.9352744
854	0.9359041
857	0.9364815
860	0.937028
863	0.9375654
866	0.938097
869	0.9386231
872	0.939146
875	0.9396651
878	0.9401797
881	0.9406891
884	0.9411929
887	0.9417258
890	0.9422917
893	0.9428525
896	0.9434084
899	0.9439597
902	0.9445085
905	0.945054
908	0.9455958
911	0.9461334
914	0.9466662
917	0.9471961
920	0.9477046
923	0.9481972
926	0.948689
929	0.9491802
932	0.9496697
935	0.9501585
938	0.9506478
941	0.9511379
944	0.9516292
947	0.9521221
950	0.9526169
953	0.9531162
956	0.9535524
959	0.953973
962	0.9543985
965	0.9548301
968	0.9552689
971	0.9557152
974	0.9561695
977	0.9566319
980	0.9571027
983	0.9575836
986	0.9580725
989	0.9585688
992	0.95907
995	0.9595791
998	0.9600887
1000	0.9604262