File: data/filmetrics/reflectance_SiO2_100_Au_35_Air_5000.txt.tsv
Wavelength (nm)	Reflectance
200	0.1973953
203	0.1691821
206	0.1809788
209	0.1702643
212	0.1100064
215	0.1175113
218	0.1148095
221	0.0721879
224	0.1123845
227	0.0648349
230	0.0869601
233	0.0869098
236	0.0923102
239	0.1305794
242	0.1156292
245	0.1742891
248	0.1506261
251	0.2100156
254	0.196564
257	0.2272631
260	0.2458716
263	0.2407634
266	0.3057903
269	0.2737143
272	0.3685134
275	0.3159159
278	0.3229601
281	0.3732447
284	0.339949
287	0.4084931
290	0.382772
293	0.3614645
296	0.4544124
299	0.3966532
302	0.3765683
305	0.4720041
308	0.4092169
311	0.3851052
314	0.4682811
317	0.4251523
320	0.3895157
323	0.4142755
326	0.4593112
329	0.3943741
332	0.3809536
335	0.4896021
338	0.4184817
341	0.3758875
344	0.3826577
347	0.5053289
350	0.3994909
353	0.3640848
356	0.3764778
359	0.4991118
362	0.4017726
365	0.3556956
368	0.3609034
371	0.4384277
374	0.45796
377	0.3588535
380	0.3466784
383	0.3712327
386	0.4781453
389	0.4134993
392	0.3368683
395	0.3323427
398	0.3587359
401	0.4527255
404	0.4307401
407	0.3182874
410	0.3057146
413	0.3224101
416	0.3764874
419	0.4845769
422	0.3384554
425	0.272854
428	0.2727138
431	0.2961546
434	0.3552782
437	0.4611357
440	0.3220815
443	0.2292079
446	0.226855
449	0.2509578
452	0.2992126
455	0.3881369
458	0.4278955
461	0.2177553
464	0.1682996
467	0.1910498
470	0.2343158
473	0.2948859
476	0.3782391
479	0.4419501
482	0.2300602
485	0.1184533
488	0.1726087
491	0.2485479
494	0.3256255
497	0.4055535
500	0.486524
503	0.5147195
506	0.2169324
509	0.1310756
512	0.2850465
515	0.4014501
518	0.4874813
521	0.5566829
524	0.6176311
527	0.6669298
530	0.6277961
533	0.1186255
536	0.3326145
539	0.5266481
542	0.6133325
545	0.6671093
548	0.7074988
551	0.741436
554	0.7673327
557	0.7811793
560	0.6613938
563	0.1175345
566	0.5279035
569	0.658175
572	0.7143037
575	0.7481564
578	0.7720432
581	0.7905773
584	0.8065739
587	0.8187003
590	0.8139641
593	0.6743475
596	0.0501771
599	0.5127497
602	0.6781778
605	0.7409614
608	0.7734888
611	0.7947949
614	0.8107092
617	0.823487
620	0.8336634
623	0.8386672
626	0.8307087
629	0.7594232
632	0.2990148
635	0.2283241
638	0.5911063
641	0.7117983
644	0.7642681
647	0.7936495
650	0.813038
653	0.8277226
656	0.8415057
659	0.8525933
662	0.8611734
665	0.8657429
668	0.8588647
671	0.7979667
674	0.3321555
677	0.3540736
680	0.7031096
683	0.7960092
686	0.8345563
689	0.8558823
692	0.8687522
695	0.8783365
698	0.8860769
701	0.892706
704	0.8986264
707	0.9040354
710	0.9086705
713	0.9117307
716	0.9088038
719	0.863718
722	0.2313328
725	0.6199201
728	0.8097302
731	0.8569643
734	0.8771108
737	0.8885729
740	0.8962631
743	0.9020209
746	0.9066829
749	0.9106877
752	0.9142761
755	0.9175683
758	0.9207625
761	0.9239429
764	0.9271341
767	0.9301393
770	0.9316131
773	0.9216848
776	0.743805
779	0.4744679
782	0.816886
785	0.8730202
788	0.8935018
791	0.9042024
794	0.9110068
797	0.9159037
800	0.9197333
803	0.9227612
806	0.925398
809	0.9277837
812	0.9300111
815	0.9321521
818	0.9342673
821	0.9364131
824	0.9386462
827	0.9409883
830	0.9433154
833	0.945503
836	0.9452298
839	0.9170332
842	0.1675628
845	0.7821707
848	0.8782047
851	0.9032993
854	0.9144701
857	0.9208192
860	0.9250085
863	0.9280754
866	0.9304879
869	0.9324901
872	0.9342253
875	0.9357811
878	0.937216
881	0.9385725
884	0.9398842
887	0.9412159
890	0.9425974
893	0.9440192
896	0.9455158
899	0.947129
902	0.9489097
905	0.9509018
908	0.9530608
911	0.9547087
914	0.949504
917	0.8016327
920	0.6410989
923	0.8708046
926	0.9074689
929	0.9209962
932	0.928008
935	0.9323735
938	0.9354242
941	0.9377325
944	0.9395832
947	0.9411341
950	0.9424795
953	0.943682
956	0.9446931
959	0.9456068
962	0.9464715
965	0.9473047
968	0.9481215
971	0.948935
974	0.949758
977	0.9506045
980	0.9514901
983	0.9524361
986	0.9534647
989	0.9546078
992	0.955906
995	0.9574149
998	0.9591667
1000	0.9604262