File: data/filmetrics/reflectance_sio2_1000_au_35.txt.tsv
Wavelength (nm)	Reflectance
200	0.0789704
203	0.1441206
206	0.3196611
209	0.3345255
212	0.1682622
215	0.0817819
218	0.2721483
221	0.3679716
224	0.2855633
227	0.1107986
230	0.1323321
233	0.3059531
236	0.3862805
239	0.3370787
242	0.1906065
245	0.1037526
248	0.2147123
251	0.3587801
254	0.4172698
257	0.3822788
260	0.2676164
263	0.1457869
266	0.1550365
269	0.2781482
272	0.3859983
275	0.4301101
278	0.4102264
281	0.3322785
284	0.2189208
287	0.1417553
290	0.1704433
293	0.2711833
296	0.3664879
299	0.4212865
302	0.4319705
305	0.4012872
308	0.3335787
311	0.2422532
314	0.1619704
317	0.1383471
320	0.1837449
323	0.2635352
326	0.3388006
329	0.3909394
332	0.4154076
335	0.4127627
338	0.3846127
341	0.3334601
344	0.2652202
347	0.1934836
350	0.1396793
353	0.1247158
356	0.1528745
359	0.2096917
362	0.2746055
365	0.332035
368	0.3753333
371	0.4016324
374	0.4110748
377	0.4040274
380	0.3813642
383	0.3445982
386	0.2962694
389	0.2413857
392	0.1882588
395	0.1477111
398	0.1295833
401	0.1379567
404	0.1687266
407	0.2131857
410	0.2614504
413	0.306561
416	0.343888
419	0.3717629
422	0.3894137
425	0.3970091
428	0.3950479
431	0.3838455
434	0.3641434
437	0.3363772
440	0.3017091
443	0.2623807
446	0.2204861
449	0.1791551
452	0.1424201
455	0.1140342
458	0.0967021
461	0.0917742
464	0.0986963
467	0.1156106
470	0.1401198
473	0.1686598
476	0.1986021
479	0.2287334
482	0.2575718
485	0.2839575
488	0.3094378
491	0.3332847
494	0.3539667
497	0.3732999
500	0.3926424
503	0.4085516
506	0.4211618
509	0.4324138
512	0.4403397
515	0.445159
518	0.4471476
521	0.4461501
524	0.442764
527	0.4380403
530	0.4305233
533	0.4231042
536	0.4180823
539	0.4174724
542	0.4170465
545	0.4242136
548	0.4399463
551	0.4640395
554	0.4892418
557	0.5194241
560	0.5525711
563	0.5866746
566	0.6143801
569	0.6395548
572	0.6629632
575	0.6842565
578	0.7021871
581	0.7165758
584	0.7289473
587	0.7395092
590	0.748335
593	0.7554467
596	0.7609923
599	0.7650846
602	0.7678138
605	0.7692338
608	0.7688672
611	0.7673137
614	0.7646278
617	0.7607823
620	0.7557635
623	0.7481477
626	0.7394293
629	0.7296712
632	0.7188684
635	0.7070927
638	0.6959283
641	0.6847854
644	0.6733676
647	0.661826
650	0.6505753
653	0.6413772
656	0.6403648
659	0.6414428
662	0.6449758
665	0.6512634
668	0.6603671
671	0.6724465
674	0.6877257
677	0.7046986
680	0.7227545
683	0.7413715
686	0.7598858
689	0.7776428
692	0.7922439
695	0.8061028
698	0.8190765
701	0.8310885
704	0.8421136
707	0.8521636
710	0.8609328
713	0.8685416
716	0.8754011
719	0.8815649
722	0.8870961
725	0.8920395
728	0.8964405
731	0.9000968
734	0.903131
737	0.9057844
740	0.9080861
743	0.9100624
746	0.9117364
749	0.9131284
752	0.9142295
755	0.9149716
758	0.9154844
761	0.9157804
764	0.9158721
767	0.915765
770	0.9154664
773	0.9149741
776	0.9143148
779	0.913505
782	0.912529
785	0.9113939
788	0.9101079
791	0.9086804
794	0.9071222
797	0.9054466
800	0.9036632
803	0.9016238
806	0.8995173
809	0.8973687
812	0.8952175
815	0.8930905
818	0.8910183
821	0.889035
824	0.8871786
827	0.8854496
830	0.8836227
833	0.8820612
836	0.8807924
839	0.8798511
842	0.8792631
845	0.879053
848	0.8792328
851	0.879803
854	0.8807538
857	0.8819983
860	0.8835411
863	0.8853753
866	0.8874716
869	0.8897896
872	0.8922976
875	0.8949505
878	0.8977032
881	0.9005132
884	0.9033411
887	0.9062279
890	0.909152
893	0.912021
896	0.9148179
899	0.9175291
902	0.9201537
905	0.9226786
908	0.925094
911	0.9273932
914	0.929572
917	0.9316389
920	0.9335727
923	0.9353893
926	0.9371015
929	0.9387125
932	0.9402208
935	0.9416334
938	0.9429565
941	0.9441939
944	0.9453493
947	0.9464263
950	0.9474283
953	0.9483627
956	0.9491439
959	0.949836
962	0.9504672
965	0.9510415
968	0.9515622
971	0.9520312
974	0.9524505
977	0.952822
980	0.9531472
983	0.9534283
986	0.9536656
989	0.9538604
992	0.9540146
995	0.9541409
998	0.9542284
1000	0.9542656