File: data/filmetrics/reflectance_sio2.txt.tsv
Wavelength (nm)	Reflectance
200	0.1174196
207	0.0787959
214	0.0386295
221	0.0097798
228	6.2e-06
235	0.0073615
242	0.0261637
249	0.0503484
256	0.0750492
263	0.0972352
270	0.1153339
277	0.1287628
284	0.13754
291	0.1420166
298	0.142672
305	0.1400617
312	0.1347664
319	0.1272919
326	0.11818
333	0.1079132
340	0.0969034
347	0.0855052
354	0.0740946
361	0.0629614
368	0.0523603
375	0.0425069
382	0.0335816
389	0.0256325
396	0.018741
403	0.0129659
410	0.0083117
417	0.0047381
424	0.0022061
431	0.000664
438	2.65e-05
445	0.0002161
452	0.0011487
459	0.00274
466	0.0048968
473	0.0075476
480	0.0106031
487	0.0139992
494	0.0176694
501	0.0215512
508	0.0255859
515	0.0297402
522	0.0339531
529	0.0381997
536	0.0424428
543	0.0466616
550	0.0508245
557	0.0549168
564	0.0589222
571	0.0628271
578	0.0666204
585	0.0702978
592	0.0738459
599	0.0772623
606	0.0805527
613	0.0837048
620	0.0867182
627	0.0895946
634	0.0923497
641	0.0949562
648	0.0974368
655	0.0997915
662	0.1020197
669	0.10412
676	0.1061133
683	0.1079757
690	0.1097292
697	0.1113832
704	0.1129315
711	0.1143776
718	0.1157252
725	0.1169624
732	0.1181071
739	0.1191792
746	0.1201667
753	0.1210729
760	0.121901
767	0.1226793
774	0.1233722
781	0.1239857
788	0.1245333
795	0.1250179
802	0.1254422
809	0.1258089
816	0.1261443
823	0.1264197
830	0.1266289
837	0.1268189
844	0.1269471
851	0.1270193
858	0.1270499
865	0.1270621
872	0.1270369
879	0.1269544
886	0.1268638
893	0.1267454
900	0.1265963
907	0.1263871
914	0.1261678
921	0.125931
928	0.1256424
935	0.1253524
942	0.1250488
949	0.124724
956	0.124352
963	0.1239698
970	0.1235876
977	0.1231885
984	0.122755
991	0.1222971
998	0.1218523
1005	0.121394
1012	0.120923
1019	0.1204401
1026	0.1199185
1033	0.1193956
1040	0.1188811
1047	0.1183574
1054	0.1178251
1061	0.1172848
1068	0.1167371
1075	0.1161597
1082	0.1155759
1089	0.115009
1096	0.1144366
1103	0.1138592
1110	0.1132772
1117	0.1126911
1124	0.1121012
1131	0.1115033
1138	0.1108756
1145	0.1102676
1152	0.1096662
1159	0.1090627
1166	0.1084574
1173	0.1078506
1180	0.1072426
1187	0.1066336
1194	0.1060238
1201	0.1054091
1208	0.1047681
1215	0.1041489
1222	0.1035385
1229	0.1029284
1236	0.1023188
1243	0.1017099
1250	0.1011018
1257	0.1004948
1264	0.0998888
1271	0.0992799
1278	0.0986473
1285	0.0980374
1292	0.0974375
1299	0.0968394
1306	0.0962432
1313	0.0956489
1320	0.0950568
1327	0.0944668
1334	0.0938791
1341	0.0932938
1348	0.0927108
1355	0.0921103
1362	0.0915126
1369	0.0909375
1376	0.0903651
1383	0.0897955
1390	0.0892287
1397	0.0886647
1404	0.0881036
1411	0.0875415
1418	0.0869594
1425	0.0863997
1432	0.0858507
1439	0.0853049
1446	0.0847621
1453	0.0842225
1460	0.083686
1467	0.0831527
1474	0.0826226
1481	0.0820921
1488	0.0815427
1495	0.0810151
1502	0.0804982
1509	0.0799845
1516	0.0794741
1523	0.078967
1530	0.0784631
1537	0.0779377
1544	0.07743
1551	0.0769363
1558	0.0764458
1565	0.0759586
1572	0.0754748
1579	0.0749942
1586	0.0744964
1593	0.0740088
1600	0.0735383
1607	0.073071
1614	0.0726071
1621	0.0721463
1628	0.0716888
1635	0.0712181
1642	0.0707507
1649	0.070303
1656	0.0698586
1663	0.0694174
1670	0.0689794
1677	0.068522
1684	0.0680809
1691	0.0676525
1698	0.0672272
1705	0.0667893
1712	0.0663547
1719	0.0659388
1726	0.0655261
1733	0.0651164
1740	0.0647097
1747	0.0642847
1754	0.063875
1761	0.0634775
1768	0.0630829
1775	0.0626764
1782	0.0622729
1789	0.0618873
1796	0.0615045
1803	0.0611159
1810	0.0607186
1817	0.0603445
1824	0.0599733
1831	0.059602
1838	0.0592164
1845	0.058848
1852	0.0584879
1859	0.0581306
1866	0.0577593
1873	0.0573964
1880	0.0570473
1887	0.0567008
1894	0.0563461
1901	0.0559886
1908	0.0556501
1915	0.0553007
1922	0.054954
1929	0.0546232
1936	0.0542792
1943	0.053943
1950	0.0536198
1957	0.0532991
1964	0.0529705
1971	0.0526392
1978	0.0523259
1985	0.0520021
1992	0.0516809
1999	0.0513748
2000	0.0513312