File: data/filmetrics/transmittance_sio2.txt.tsv
Wavelength (nm)	Transmittance
200	0.8825804
207	0.9212041
214	0.9613705
221	0.9902202
228	0.9999938
235	0.9926385
242	0.9738363
249	0.9496516
256	0.9249508
263	0.9027648
270	0.8846661
277	0.8712372
284	0.86246
291	0.8579834
298	0.857328
305	0.8599383
312	0.8652336
319	0.8727081
326	0.88182
333	0.8920868
340	0.9030966
347	0.9144948
354	0.9259054
361	0.9370386
368	0.9476397
375	0.9574931
382	0.9664184
389	0.9743675
396	0.981259
403	0.9870341
410	0.9916883
417	0.9952619
424	0.9977939
431	0.999336
438	0.9999735
445	0.9997839
452	0.9988513
459	0.99726
466	0.9951032
473	0.9924524
480	0.9893969
487	0.9860008
494	0.9823306
501	0.9784488
508	0.9744141
515	0.9702598
522	0.9660469
529	0.9618003
536	0.9575572
543	0.9533384
550	0.9491755
557	0.9450832
564	0.9410778
571	0.9371729
578	0.9333796
585	0.9297022
592	0.9261541
599	0.9227377
606	0.9194473
613	0.9162952
620	0.9132818
627	0.9104054
634	0.9076503
641	0.9050438
648	0.9025632
655	0.9002085
662	0.8979803
669	0.89588
676	0.8938867
683	0.8920243
690	0.8902708
697	0.8886168
704	0.8870685
711	0.8856224
718	0.8842748
725	0.8830376
732	0.8818929
739	0.8808208
746	0.8798333
753	0.8789271
760	0.878099
767	0.8773207
774	0.8766278
781	0.8760143
788	0.8754667
795	0.8749821
802	0.8745578
809	0.8741911
816	0.8738557
823	0.8735803
830	0.8733711
837	0.8731811
844	0.8730529
851	0.8729807
858	0.8729501
865	0.8729379
872	0.8729631
879	0.8730456
886	0.8731362
893	0.8732546
900	0.8734037
907	0.8736129
914	0.8738322
921	0.874069
928	0.8743576
935	0.8746476
942	0.8749512
949	0.875276
956	0.875648
963	0.8760302
970	0.8764124
977	0.8768115
984	0.877245
991	0.8777029
998	0.8781477
1005	0.878606
1012	0.879077
1019	0.8795599
1026	0.8800815
1033	0.8806044
1040	0.8811189
1047	0.8816426
1054	0.8821749
1061	0.8827152
1068	0.8832629
1075	0.8838403
1082	0.8844241
1089	0.884991
1096	0.8855634
1103	0.8861408
1110	0.8867228
1117	0.8873089
1124	0.8878988
1131	0.8884967
1138	0.8891244
1145	0.8897324
1152	0.8903338
1159	0.8909373
1166	0.8915426
1173	0.8921494
1180	0.8927574
1187	0.8933664
1194	0.8939762
1201	0.8945909
1208	0.8952319
1215	0.8958511
1222	0.8964615
1229	0.8970716
1236	0.8976812
1243	0.8982901
1250	0.8988982
1257	0.8995052
1264	0.9001112
1271	0.9007201
1278	0.9013527
1285	0.9019626
1292	0.9025625
1299	0.9031606
1306	0.9037568
1313	0.9043511
1320	0.9049432
1327	0.9055332
1334	0.9061209
1341	0.9067062
1348	0.9072892
1355	0.9078897
1362	0.9084874
1369	0.9090625
1376	0.9096349
1383	0.9102045
1390	0.9107713
1397	0.9113353
1404	0.9118964
1411	0.9124585
1418	0.9130406
1425	0.9136003
1432	0.9141493
1439	0.9146951
1446	0.9152379
1453	0.9157775
1460	0.916314
1467	0.9168473
1474	0.9173774
1481	0.9179079
1488	0.9184573
1495	0.9189849
1502	0.9195018
1509	0.9200155
1516	0.9205259
1523	0.921033
1530	0.9215369
1537	0.9220623
1544	0.92257
1551	0.9230637
1558	0.9235542
1565	0.9240414
1572	0.9245252
1579	0.9250058
1586	0.9255036
1593	0.9259912
1600	0.9264617
1607	0.926929
1614	0.9273929
1621	0.9278537
1628	0.9283112
1635	0.9287819
1642	0.9292493
1649	0.929697
1656	0.9301414
1663	0.9305826
1670	0.9310206
1677	0.931478
1684	0.9319191
1691	0.9323475
1698	0.9327728
1705	0.9332107
1712	0.9336453
1719	0.9340612
1726	0.9344739
1733	0.9348836
1740	0.9352903
1747	0.9357153
1754	0.936125
1761	0.9365225
1768	0.9369171
1775	0.9373236
1782	0.9377271
1789	0.9381127
1796	0.9384955
1803	0.9388841
1810	0.9392814
1817	0.9396555
1824	0.9400267
1831	0.940398
1838	0.9407836
1845	0.941152
1852	0.9415121
1859	0.9418694
1866	0.9422407
1873	0.9426036
1880	0.9429527
1887	0.9432992
1894	0.9436539
1901	0.9440114
1908	0.9443499
1915	0.9446993
1922	0.945046
1929	0.9453768
1936	0.9457208
1943	0.946057
1950	0.9463802
1957	0.9467009
1964	0.9470295
1971	0.9473608
1978	0.9476741
1985	0.9479979
1992	0.9483191
1999	0.9486252
2000	0.9486688