File: data/filmetrics/transmittance_sio2_1000_au_35.txt.tsv
Wavelength (nm)	Transmittance
200	0.074941
203	0.0726382
206	0.0601422
209	0.0590194
212	0.0732252
215	0.0806942
218	0.0640585
221	0.0554277
224	0.062812
227	0.0780033
230	0.0755898
233	0.0602794
236	0.0529024
239	0.0565775
242	0.0685293
245	0.0752186
248	0.0650805
251	0.0519256
254	0.0462497
257	0.0484023
260	0.056853
263	0.0658001
266	0.0644152
269	0.0545016
272	0.0461361
275	0.0427679
278	0.0442424
281	0.0501681
284	0.058956
287	0.065267
290	0.0636561
293	0.0565286
296	0.0498182
299	0.046315
302	0.0464047
305	0.0500287
308	0.0570566
311	0.0665456
314	0.0755321
317	0.0799309
320	0.078255
323	0.0730988
326	0.0679579
329	0.0646192
332	0.0639405
335	0.0661426
338	0.0713528
341	0.0794454
344	0.0898833
347	0.100841
350	0.109781
353	0.113756
356	0.1120162
359	0.1062405
362	0.0988567
365	0.0921632
368	0.086758
371	0.0836285
374	0.0827765
377	0.0843692
380	0.0883793
383	0.0945502
386	0.1025812
389	0.1117334
392	0.1207995
395	0.1282218
398	0.1324672
401	0.132807
404	0.1298286
407	0.1245849
410	0.1187051
413	0.1131081
416	0.1086985
419	0.1056981
422	0.104426
425	0.1048998
428	0.1070619
431	0.1111307
434	0.116847
437	0.1245004
440	0.1338717
443	0.144526
446	0.1569154
449	0.1697231
452	0.1822685
455	0.1938243
458	0.2033887
461	0.2104798
464	0.2149859
467	0.2171051
470	0.2173039
473	0.2163376
476	0.214786
479	0.2135508
482	0.2127858
485	0.2126285
488	0.2119792
491	0.2113951
494	0.2119216
497	0.2119274
500	0.2101007
503	0.2097487
506	0.2109296
509	0.2107859
512	0.2122786
515	0.2154876
518	0.218945
521	0.2224187
524	0.2274093
527	0.2335917
530	0.2398033
533	0.2460366
536	0.251788
539	0.2561844
542	0.2583544
545	0.2573089
548	0.2525904
551	0.2441804
554	0.2346062
557	0.2226459
560	0.2091763
563	0.1950873
566	0.1847203
569	0.1754657
572	0.1667692
575	0.1588363
578	0.1522879
581	0.1472639
584	0.1431101
587	0.1397614
590	0.1372205
593	0.1349692
596	0.1334356
599	0.1326731
602	0.1326576
605	0.1333616
608	0.1347629
611	0.1368763
614	0.1396881
617	0.1432331
620	0.1475404
623	0.1535682
626	0.1603639
629	0.1679078
632	0.1762209
635	0.1852762
638	0.1934602
641	0.201478
644	0.2097455
647	0.2181686
650	0.2264806
653	0.2331888
656	0.2326537
659	0.23078
662	0.2273547
665	0.2222102
668	0.2153333
671	0.2064845
674	0.1953027
677	0.1832285
680	0.1706616
683	0.1579356
686	0.1454597
689	0.1336415
692	0.1241135
695	0.1151355
698	0.1067831
701	0.099091
704	0.0920629
707	0.0856809
710	0.0801252
713	0.0753098
716	0.0709731
719	0.0670772
722	0.0635795
725	0.0604484
728	0.0576528
731	0.0552978
734	0.0533089
737	0.0515493
740	0.0499995
743	0.0486417
746	0.0474605
749	0.046442
752	0.0455942
755	0.0449694
758	0.0444705
761	0.0440892
764	0.0438171
767	0.0436498
770	0.043582
773	0.0436132
776	0.0437358
779	0.0439458
782	0.0442372
785	0.0446053
788	0.0450449
791	0.0455504
794	0.0461154
797	0.0467326
800	0.0473964
803	0.0481783
806	0.048985
809	0.049804
812	0.0506162
815	0.0514085
818	0.0521668
821	0.052875
824	0.0535159
827	0.0540923
830	0.0547217
833	0.055221
836	0.0555792
839	0.0557818
842	0.0558189
845	0.0556813
848	0.0553656
851	0.0548738
854	0.0542127
857	0.0534196
860	0.0524959
863	0.051449
866	0.0502934
869	0.0490486
872	0.0477298
875	0.0463578
878	0.0449532
881	0.043535
884	0.0421205
887	0.0406876
890	0.0392455
893	0.0378393
896	0.036476
899	0.0351608
902	0.0338935
905	0.032679
908	0.0315208
911	0.030421
914	0.0293807
917	0.0283956
920	0.0274727
923	0.0266048
926	0.0257871
929	0.0250176
932	0.0242963
935	0.0236198
938	0.022985
941	0.0223898
944	0.0218323
947	0.0213106
950	0.0208229
953	0.0203658
956	0.019979
959	0.019632
962	0.0193113
965	0.0190151
968	0.0187418
971	0.0184905
974	0.0182601
977	0.0180497
980	0.0178584
983	0.0176853
986	0.01753
989	0.0173918
992	0.0172697
995	0.0171542
998	0.0170541
1000	0.0169957