File: data/filmetrics/transmittance_SiO2_100_Au_35_Air_5000.txt.tsv
Wavelength (nm)	Transmittance
200	0.0040135
203	0.0030524
206	0.0061113
209	0.0088992
212	0.0038097
215	0.0060012
218	0.0098118
221	0.0037865
224	0.0103407
227	0.0053299
230	0.0051714
233	0.0090844
236	0.0036427
239	0.0117082
242	0.0030355
245	0.0115824
248	0.0026147
251	0.0097487
254	0.0021995
257	0.0064812
260	0.0022382
263	0.0032389
266	0.0032129
269	0.0016778
272	0.0064389
275	0.0013373
278	0.0034981
281	0.002268
284	0.0013024
287	0.0059297
290	0.0014172
293	0.0015846
296	0.0056148
299	0.0013044
302	0.0017982
305	0.0060015
308	0.0014986
311	0.0017644
314	0.0072018
317	0.0021656
320	0.0016997
323	0.005572
326	0.0048847
329	0.0020558
332	0.0030826
335	0.0110785
338	0.0040699
341	0.00259
344	0.0047991
347	0.0137515
350	0.0048301
353	0.0031705
356	0.0052427
359	0.015927
362	0.00719
365	0.0037927
368	0.0044669
371	0.0115391
374	0.0143518
377	0.0052911
380	0.0039396
383	0.0059024
386	0.016699
389	0.0140995
392	0.0057876
395	0.0045201
398	0.0064548
401	0.0166724
404	0.0216623
407	0.0086413
410	0.0056674
413	0.0063028
416	0.0117971
419	0.0304542
422	0.0211433
425	0.0098752
428	0.0074334
431	0.008703
434	0.0157009
437	0.0385592
440	0.0354418
443	0.0167996
446	0.0115451
449	0.0115282
452	0.0163083
455	0.0328671
458	0.0692353
461	0.0507138
464	0.0268164
467	0.019262
470	0.0187416
473	0.0241807
476	0.0418233
479	0.090037
482	0.1169607
485	0.0648891
488	0.0381537
491	0.0291674
494	0.0286614
497	0.0353391
500	0.0556642
503	0.1185575
506	0.2123559
509	0.1121301
512	0.0516498
515	0.0320549
518	0.0254573
521	0.0250779
524	0.0313638
527	0.0528128
530	0.1356738
533	0.2942745
536	0.096197
539	0.0369281
542	0.0210914
545	0.0157372
548	0.0145017
551	0.0163351
554	0.0236174
557	0.0472709
560	0.164757
563	0.2971002
566	0.0698244
569	0.0291089
572	0.0177811
575	0.0137579
578	0.0127939
581	0.0140275
584	0.0180723
587	0.028289
590	0.0586227
593	0.1934642
596	0.461489
599	0.1232126
602	0.048289
605	0.0277042
608	0.0199809
611	0.0169495
614	0.0164158
617	0.0179753
620	0.0223757
623	0.0327596
626	0.0586377
629	0.1428848
632	0.4820899
635	0.3652141
638	0.1187115
641	0.0561575
644	0.0347234
647	0.0255754
650	0.0214314
653	0.0197529
656	0.0188847
659	0.0199903
662	0.0236947
665	0.0323192
668	0.0537964
671	0.1243693
674	0.464004
677	0.2872307
680	0.072682
683	0.0300028
686	0.0164188
689	0.0107054
692	0.0081021
695	0.0067487
698	0.0061093
701	0.0059815
704	0.0063431
707	0.0073464
710	0.0095073
713	0.0142549
716	0.0266861
719	0.0765028
722	0.4666134
725	0.119198
728	0.0299096
731	0.0131475
734	0.0075566
737	0.0050792
740	0.0038043
743	0.0030967
746	0.0027017
749	0.0025074
752	0.00247
755	0.0025904
758	0.0028926
761	0.0034695
764	0.0045429
767	0.0066926
770	0.0117942
773	0.0288344
776	0.1560165
779	0.185457
782	0.0289525
785	0.0106499
788	0.005538
791	0.0034613
794	0.0024331
797	0.001861
800	0.0015208
803	0.0013183
806	0.0011992
809	0.0011405
812	0.0011322
815	0.0011736
818	0.0012728
821	0.0014511
824	0.0017528
827	0.0022762
830	0.0032678
833	0.0053864
836	0.0112166
839	0.0387423
842	0.3761473
845	0.0417539
848	0.0110077
851	0.0049675
854	0.0028553
857	0.0018899
860	0.0013741
863	0.0010701
866	0.0008793
869	0.0007555
872	0.0006746
875	0.0006234
878	0.000595
881	0.0005856
884	0.0005943
887	0.0006211
890	0.0006696
893	0.000748
896	0.00087
899	0.001061
902	0.001372
905	0.0019167
908	0.0029896
911	0.0055636
914	0.0145633
917	0.0959755
920	0.0862923
923	0.0132034
926	0.0049196
929	0.0025547
932	0.0015762
935	0.0010826
938	0.0008011
941	0.0006267
944	0.0005125
947	0.0004346
950	0.0003802
953	0.000342
956	0.0003166
959	0.0003004
962	0.0002913
965	0.0002886
968	0.000292
971	0.0003019
974	0.000319
977	0.0003451
980	0.0003829
983	0.000437
986	0.0005152
989	0.0006313
992	0.0008112
995	0.0011078
998	0.0016483
1000	0.0022991