File: data/filmetrics/transmittance_SiO2_Au10_Air10000_fpi.txt.tsv
Wavelength (nm)	Transmittance
200	0.2296616
233	0.2572863
266	0.1305776
299	0.2271432
332	0.1365769
365	0.2740771
398	0.1767437
431	0.1849418
464	0.349699
497	0.3784927
530	0.69374
563	0.4892671
596	0.5806355
629	0.8337495
662	0.3580995
695	0.8464839
728	0.2606543
761	0.1474348
794	0.1280071
827	0.1076597
860	0.0848697
893	0.0779668
926	0.1428698
959	0.634688
992	0.0610067
1025	0.0595869
1058	0.3692236
1091	0.0313629
1124	0.441983
1157	0.0243834
1190	0.41837
1223	0.0195912
1256	0.2578168
1289	0.0283256
1322	0.0388069
1355	0.2261134
1388	0.0270506
1421	0.0556995
1454	0.1884519
1487	0.0238031
1520	0.0300956
1553	0.5160337
1586	0.0334597
1619	0.0162867
1652	0.0314034
1685	0.5300325
1718	0.0297737
1751	0.0128176
1784	0.0153838
1817	0.0618111
1850	0.163303
1883	0.0184569
1916	0.00963
1949	0.0101885
1982	0.0221048
2015	0.2388368
2048	0.0486184
2081	0.0119173
2114	0.0070481
2147	0.0067411
2180	0.0100062
2213	0.028565
2246	0.3706959
2279	0.0348278
2312	0.009927
2345	0.0055818
2378	0.0045025
2411	0.0047987
2444	0.0068181
2477	0.0145267
2510	0.0774975
2543	0.1682448
2576	0.0243996
2609	0.0103093
2642	0.0066675
2675	0.0055038
2708	0.0054296
2741	0.0062568
2774	0.0084506
2807	0.0138232
2840	0.0299486
2873	0.1085917
2906	0.3783773
2939	0.0830799
2972	0.0307122
3005	0.0172653
3038	0.0122009
3071	0.0100136
3104	0.0091926
3137	0.0092619
3170	0.0101548
3203	0.0121025
3236	0.0157759
3269	0.0228469
3302	0.0379154
3335	0.0763801
3368	0.2011038
3401	0.446469
3434	0.2263488
3467	0.0950766
3500	0.0519492
3533	0.0342159
3566	0.0255519
3599	0.0208893
3632	0.0183126
3665	0.0169963
3698	0.0165667
3731	0.0168736
3764	0.0179066
3797	0.0197764
3830	0.0227394
3863	0.0272761
3896	0.0342641
3929	0.0453576
3962	0.0638525
3995	0.0967527
4028	0.1595153
4061	0.2814256
4094	0.4576458
4127	0.48083
4160	0.323671
4193	0.1991216
4226	0.1305822
4259	0.0928684
4292	0.0707914
4325	0.0570709
4358	0.0481469
4391	0.0421712
4424	0.0381266
4457	0.0354259
4490	0.0337193
4523	0.0327966
4556	0.0325357
4589	0.0328746
4622	0.0337972
4655	0.0353268
4688	0.0375261
4721	0.0405018
4754	0.0444148
4787	0.0494986
4820	0.0560863
4853	0.0646544
4886	0.0758883
4919	0.0907825
4952	0.1107893
4985	0.1380228
5018	0.1754834
5051	0.2271079
5084	0.2969371
5117	0.3856521
5150	0.4823343
5183	0.5565244
5216	0.5722453
5249	0.5249221
5282	0.4451261
5315	0.3640097
5348	0.2957723
5381	0.2426227
5414	0.2023015
5447	0.1718141
5480	0.1486077
5513	0.130761
5546	0.1168885
5579	0.1060013
5612	0.0973928
5645	0.0905541
5678	0.0851145
5711	0.0808016
5744	0.0774133
5777	0.0747986
5810	0.0728441
5843	0.0714655
5876	0.0705997
5909	0.0702012
5942	0.0702382
5975	0.0706905
6008	0.0715476
6041	0.0728077
6074	0.0744774
6107	0.0765707
6140	0.0791095
6173	0.0821237
6206	0.0856517
6239	0.0897411
6272	0.0944496
6305	0.0998468
6338	0.1060149
6371	0.1130511
6404	0.1210691
6437	0.1302022
6470	0.1406042
6503	0.152453
6536	0.1659518
6569	0.181329
6602	0.1988384
6635	0.218753
6668	0.241356
6701	0.2669217
6734	0.2956832
6767	0.3277868
6800	0.3632227
6833	0.4017331
6866	0.4427091
6899	0.4850863
6932	0.5272767
6965	0.5671953
6998	0.6024192
7031	0.6305033
7064	0.6494081
7097	0.6579058
7130	0.6558288
7163	0.6440561
7196	0.6242614
7229	0.5985297
7262	0.5689831
7295	0.5375104
7328	0.5056244
7361	0.4744313
7394	0.4446708
7427	0.4167829
7460	0.3909865
7493	0.3673438
7526	0.3458155
7559	0.3263013
7592	0.3086663
7625	0.2927607
7658	0.2784329
7691	0.2655356
7724	0.2539299
7757	0.2434887
7790	0.2340965
7823	0.2256491
7856	0.2180536
7889	0.2112279
7922	0.2050983
7955	0.1996004
7988	0.194677
8021	0.1902775
8054	0.1863574
8087	0.1828777
8120	0.1798035
8153	0.1771043
8186	0.1747534
8219	0.1727268
8252	0.1710037
8285	0.1695659
8318	0.168397
8351	0.1674831
8384	0.1668117
8417	0.166372
8450	0.1661548
8483	0.166152
8516	0.1663568
8549	0.1667633
8582	0.1673669
8615	0.1681634
8648	0.1691501
8681	0.1703243
8714	0.1716846
8747	0.1732301
8780	0.1749603
8813	0.1768754
8846	0.1789764
8879	0.1812646
8912	0.1837415
8945	0.1864097
8978	0.1892718
9011	0.1923309
9044	0.1955906
9077	0.1990548
9110	0.2027276
9143	0.2066141
9176	0.210719
9209	0.2150476
9242	0.2196053
9275	0.2243983
9308	0.2294324
9341	0.2347138
9374	0.2402492
9407	0.2460451
9440	0.2521078
9473	0.2584444
9506	0.2650614
9539	0.2719651
9572	0.2791623
9605	0.2866589
9638	0.2944607
9671	0.3025733
9704	0.3110015
9737	0.3197491
9770	0.3288201
9803	0.3382167
9836	0.34794
9869	0.3579906
9902	0.368367
9935	0.3790662
9968	0.3900832
10000	0.4010641