File: data/filmetrics/transmittance_sio2_100_au_35_x2_air_1000.txt.tsv
Wavelength (nm)	Transmittance
200	0.003823
203	0.0072475
206	0.0098329
209	0.006806
212	0.004457
215	0.003673
218	0.0038603
221	0.0050423
224	0.0082564
227	0.0135386
230	0.0125372
233	0.0073184
236	0.0045047
239	0.0033211
242	0.0029452
245	0.0030813
248	0.0037696
251	0.0053037
254	0.0082094
257	0.0096803
260	0.006365
263	0.0035785
266	0.0022445
269	0.0016341
272	0.0013744
275	0.0013112
278	0.0013977
281	0.0016686
284	0.0022448
287	0.0033522
290	0.0050928
293	0.006223
296	0.005127
299	0.0034947
302	0.0024503
305	0.0018804
308	0.0015825
311	0.0014455
314	0.0014188
317	0.0014951
320	0.0016885
323	0.002026
326	0.0025675
329	0.0033997
332	0.0047017
335	0.0066851
338	0.0093931
341	0.0120558
344	0.0130526
347	0.0118346
350	0.0097488
353	0.0078556
356	0.0064554
359	0.0054911
362	0.0048202
365	0.0043779
368	0.0040502
371	0.003868
374	0.0038021
377	0.0038645
380	0.0040625
383	0.004397
386	0.0048971
389	0.005604
392	0.006588
395	0.0079617
398	0.009877
401	0.0125219
404	0.016101
407	0.0205824
410	0.0254978
413	0.029463
416	0.0310193
419	0.0297556
422	0.0268198
425	0.0234887
428	0.0204723
431	0.018103
434	0.0162575
437	0.0149575
440	0.0140576
443	0.013455
446	0.0132645
449	0.013268
452	0.0134758
455	0.0138967
458	0.0144952
461	0.0152871
464	0.0162897
467	0.0175282
470	0.0189592
473	0.0206554
476	0.0227021
479	0.0250654
482	0.0278673
485	0.0312545
488	0.0349065
491	0.0390375
494	0.0441412
497	0.0498228
500	0.0556642
503	0.0631797
506	0.0729304
509	0.084161
512	0.0991554
515	0.1194022
518	0.1458034
521	0.1796789
524	0.222185
527	0.26726
530	0.2934681
533	0.2806198
536	0.2334218
539	0.1770106
542	0.1290212
545	0.0944314
548	0.0704162
551	0.053732
554	0.0428978
557	0.0350283
560	0.0291722
563	0.024724
566	0.0221694
569	0.0203349
572	0.0188711
575	0.0176979
578	0.016868
581	0.0163517
584	0.0159748
587	0.0157207
590	0.0155754
593	0.0154186
596	0.0153394
599	0.0153491
602	0.0154432
605	0.0156194
608	0.0158731
611	0.0162102
614	0.0166335
617	0.0171482
620	0.0177658
623	0.0187296
626	0.0198286
629	0.0210796
632	0.0225032
635	0.0241237
638	0.0255301
641	0.0269746
644	0.0286441
647	0.0305744
650	0.0328097
653	0.0350772
656	0.0358225
659	0.0368974
662	0.0383593
665	0.0402893
668	0.0428034
671	0.0459315
674	0.049658
677	0.0546474
680	0.0614015
683	0.0707097
686	0.0838988
689	0.1033319
692	0.1340872
695	0.1822315
698	0.2596826
701	0.3788376
704	0.5118665
707	0.5262305
710	0.3871151
713	0.244828
716	0.1536873
719	0.1004756
722	0.0688315
725	0.0491602
728	0.0363597
731	0.0278515
734	0.0219531
737	0.0176515
740	0.0144348
743	0.0119769
746	0.0100636
749	0.00855
752	0.0073431
755	0.00639
758	0.0056036
761	0.0049486
764	0.0043981
767	0.0039317
770	0.0035335
773	0.0031912
776	0.0028953
779	0.0026383
782	0.0024138
785	0.0022166
788	0.0020427
791	0.0018887
794	0.0017519
797	0.0016298
800	0.0015208
803	0.0014287
806	0.0013457
809	0.0012705
812	0.0012025
815	0.0011407
818	0.0010845
821	0.0010332
824	0.0009862
827	0.0009444
830	0.0009122
833	0.0008827
836	0.0008557
839	0.000831
842	0.0008082
845	0.0007874
848	0.0007683
851	0.0007509
854	0.000735
857	0.0007213
860	0.0007093
863	0.0006987
866	0.0006892
869	0.0006808
872	0.0006735
875	0.0006672
878	0.0006618
881	0.0006575
884	0.0006542
887	0.0006509
890	0.0006475
893	0.000645
896	0.0006435
899	0.0006429
902	0.0006433
905	0.0006446
908	0.000647
911	0.0006503
914	0.0006548
917	0.0006604
920	0.0006675
923	0.0006761
926	0.0006859
929	0.0006971
932	0.0007098
935	0.0007241
938	0.0007401
941	0.000758
944	0.0007778
947	0.0007999
950	0.0008243
953	0.0008514
956	0.0008847
959	0.0009226
962	0.0009647
965	0.0010114
968	0.0010634
971	0.0011214
974	0.0011864
977	0.0012594
980	0.0013418
983	0.0014352
986	0.0015415
989	0.0016634
992	0.001804
995	0.0019656
998	0.0021546
1000	0.0022991