File: data/filmetrics/trans_SiO2_Au10nm_Air10000nm_Au10nm_SiO2.txt
Wavelength (nm)	Transmittance
210	0.4035886
218	0.4391563
226	0.3603309
234	0.3519504
242	0.3845709
250	0.4577204
258	0.3323759
266	0.374491
274	0.4332381
282	0.4308817
290	0.4286811
298	0.3918067
306	0.3123238
314	0.3618862
322	0.4172852
330	0.3538099
338	0.4179453
346	0.4582772
354	0.3642209
362	0.4120406
370	0.500521
378	0.5188498
386	0.4939336
394	0.4753852
402	0.4766113
410	0.4981662
418	0.5349158
426	0.5650045
434	0.5446384
442	0.4795166
450	0.4507534
458	0.5244953
466	0.6504112
474	0.5792697
482	0.5370502
490	0.7003464
498	0.6581157
506	0.6067112
514	0.7839591
522	0.6109467
530	0.7456199
538	0.662267
546	0.6779578
554	0.6988605
562	0.6447756
570	0.7074222
578	0.6639865
586	0.687391
594	0.726946
602	0.6382794
610	0.8167472
618	0.605128
626	0.8322172
634	0.6636341
642	0.6957584
650	0.8229745
658	0.6034254
666	0.7635245
674	0.7090747
682	0.5499522
690	0.7433037
698	0.6335922
706	0.499489
714	0.6828277
722	0.6272973
730	0.4568308
738	0.5729181
746	0.6693763
754	0.4557821
762	0.4473599
770	0.631428
778	0.5470906
786	0.3944546
794	0.4431301
802	0.6096322
810	0.4931089
818	0.3632787
826	0.3993963
834	0.5563895
842	0.5080552
850	0.3592038
858	0.3411606
866	0.4498972
874	0.546686
882	0.4160361
890	0.3176082
898	0.3281976
906	0.4365386
914	0.5113732
922	0.3945353
930	0.299085
938	0.2910909
946	0.3637237
954	0.4696574
962	0.432434
970	0.3189042
978	0.2659116
986	0.2789478
994	0.3538692
1002	0.4433914
1010	0.4100195
1018	0.3089615
1026	0.251821
1034	0.2471166
1042	0.2898152
1050	0.3710565
1058	0.4128221
1066	0.3465909
1074	0.2646727
1082	0.2227255
1090	0.2195514
1098	0.2520102
1106	0.3162844
1114	0.3704971
1122	0.3436488
1130	0.2703943
1138	0.2163261
1146	0.1931781
1154	0.1968837
1162	0.2262872
1170	0.2787839
1178	0.3276026
1186	0.3219721
1194	0.2675287
1202	0.2148326
1210	0.1839647
1218	0.1741683
1226	0.1831652
1234	0.2110684
1242	0.2571751
1250	0.3070646
1258	0.321166
1266	0.2881606
1274	0.2409715
1282	0.2052566
1290	0.1864457
1298	0.1833692
1306	0.1952539
1314	0.2226273
1322	0.2653238
1330	0.3147963
1338	0.3470275
1346	0.3391588
1354	0.3002761
1362	0.2569127
1370	0.2242565
1378	0.2053427
1386	0.1970238
1394	0.2010198
1402	0.2171189
1410	0.2453962
1418	0.2836756
1426	0.3228496
1434	0.345067
1442	0.3361524
1450	0.3021026
1458	0.2612125
1466	0.2257396
1474	0.2007049
1482	0.1860309
1490	0.180627
1498	0.1837459
1506	0.1952176
1514	0.2150884
1522	0.2425888
1530	0.2741268
1538	0.301177
1546	0.3121891
1554	0.3011865
1562	0.2736443
1570	0.2407699
1578	0.2110659
1586	0.1880632
1594	0.1722655
1602	0.1630999
1610	0.159912
1618	0.1623072
1626	0.1701886
1634	0.1836128
1642	0.2024224
1650	0.2255432
1658	0.2499316
1666	0.269981
1674	0.2789756
1682	0.2731683
1690	0.2547774
1698	0.2300396
1706	0.2049865
1714	0.1832051
1722	0.1660335
1730	0.1535745
1738	0.1454733
1746	0.1413211
1754	0.1408162
1762	0.1438094
1770	0.1502813
1778	0.1603134
1786	0.1738004
1794	0.1902937
1802	0.2085784
1810	0.2262823
1818	0.2399694
1826	0.246074
1834	0.2426959
1842	0.2307745
1850	0.2134551
1858	0.1943017
1866	0.1760118
1874	0.1600865
1882	0.1470906
1890	0.1370639
1898	0.1298245
1906	0.1251356
1914	0.1227875
1922	0.1226413
1930	0.1246221
1938	0.1287133
1946	0.1349275
1954	0.143266
1962	0.153638
1970	0.1657443
1978	0.1789458
1986	0.1920935
1994	0.2035559
2002	0.2114456
2010	0.2141656
2018	0.2111136
2026	0.2028569
2034	0.1909548
2042	0.1772544
2050	0.1633473
2058	0.1503464
2066	0.1388502
2074	0.1291088
2082	0.1211546
2090	0.114907
2098	0.1102455
2106	0.1070485
2114	0.1052124
2122	0.1046602
2130	0.105344
2138	0.1072392
2146	0.1103424
2154	0.1146578
2162	0.1201834
2170	0.1268848
2178	0.1346656
2186	0.1433265
2194	0.1525057
2202	0.161652
2210	0.1700327
2218	0.1767587
2226	0.1809983
2234	0.1821515
2242	0.1800189
2250	0.1748627
2258	0.1673633
2266	0.1583738
2274	0.1487019
2282	0.1390329
2290	0.1298599
2298	0.1214873
2306	0.1140618
2314	0.1076389
2322	0.1022094
2330	0.0977292
2338	0.0941407
2346	0.0913845
2354	0.0894063
2362	0.0881599
2370	0.0876093
2378	0.08773
2386	0.0885048
2394	0.0899257
2400	0.0914137